Scan started at 15:00:19 30/09/2014
Time (s)	x (nT)	y (nT)	z (nT)	Frequency (Hz)	x (nT)	y (nT)	z (nT)
0	-367.96	557.145	-23.0691	0.195622	47.2438	69.8552	2.49662	
0.00499208	-367.857	556.99	-23.277	0.293434	33.1353	53.6983	2.28109	
0.00998416	-367.792	556.82	-23.5486	0.391245	12.2716	23.4238	1.16542	
0.0149762	-367.932	556.96	-23.3995	0.489056	20.1574	29.2691	1.07703	
0.0199683	-367.997	557.125	-23.1248	0.586867	11.2815	15.4205	0.911236	
0.0249604	-367.858	556.984	-23.2675	0.684678	13.7665	21.8719	0.728973	
0.0299525	-367.787	556.827	-23.5467	0.782489	7.23238	12.2705	0.480473	
0.0349446	-367.926	556.976	-23.4095	0.880301	10.4553	16.0515	0.547816	
0.0399366	-367.999	557.134	-23.1352	0.978112	6.47439	9.44619	0.470464	
0.0449287	-367.867	556.987	-23.2743	1.07592	8.4243	12.9292	0.3487	
0.0499208	-367.801	556.82	-23.5524	1.17373	5.46998	8.52036	0.325553	
0.0549129	-367.938	556.961	-23.4084	1.27155	6.86517	10.7048	0.330163	
0.059905	-367.997	557.124	-23.1205	1.36936	4.9793	7.66475	0.273443	
0.064897	-367.857	556.991	-23.2629	1.46717	5.91245	9.10932	0.246586	
0.0698891	-367.796	556.843	-23.5501	1.56498	4.43952	6.83757	0.23406	
0.0748812	-367.931	556.983	-23.4169	1.66279	4.9915	7.70983	0.226511	
0.0798733	-367.993	557.139	-23.1276	1.7606	4.17867	6.43081	0.196597	
0.0848654	-367.865	556.999	-23.2577	1.85841	4.39837	6.8026	0.196547	
0.0898574	-367.806	556.835	-23.5427	1.95622	3.86926	5.98215	0.18365	
0.0948495	-367.935	556.968	-23.4056	2.05403	3.78053	5.8501	0.177166	
0.0998416	-367.998	557.131	-23.1195	2.15185	3.68084	5.66123	0.171727	
0.104834	-367.86	556.998	-23.2593	2.24966	3.36822	5.17824	0.162418	
0.109826	-367.797	556.84	-23.5505	2.34747	3.46869	5.37109	0.158271	
0.114818	-367.935	556.972	-23.4108	2.44528	2.96788	4.60169	0.146879	
0.11981	-367.996	557.127	-23.118	2.54309	3.30372	5.08711	0.148584	
0.124802	-367.864	556.992	-23.2568	2.6409	2.64034	4.05226	0.133014	
0.129794	-367.797	556.838	-23.5545	2.73871	3.1695	4.90235	0.138364	
0.134786	-367.934	556.976	-23.4152	2.83652	2.33934	3.60938	0.124521	
0.139778	-367.997	557.131	-23.1174	2.93434	3.01825	4.65607	0.123999	
0.14477	-367.859	557	-23.2565	3.03215	2.14439	3.30547	0.118858	
0.149762	-367.796	556.847	-23.551	3.12996	2.87572	4.44217	0.114163	
0.154754	-367.924	556.981	-23.4138	3.22777	1.91584	2.9611	0.108532	
0.159747	-367.993	557.138	-23.1176	3.32558	2.774	4.27465	0.110952	
0.164739	-367.87	556.995	-23.2551	3.42339	1.73148	2.66073	0.101938	
0.169731	-367.806	556.836	-23.5578	3.5212	2.65059	4.1063	0.111135	
0.174723	-367.934	556.976	-23.4176	3.61901	1.58661	2.43152	0.0992717	
0.179715	-367.987	557.131	-23.1112	3.71683	2.54842	3.93326	0.107433	
0.184707	-367.847	556.998	-23.2499	3.81464	1.4718	2.26542	0.0922347	
0.189699	-367.787	556.848	-23.5443	3.91245	2.41046	3.73423	0.0980185	
0.194691	-367.925	556.989	-23.4091	4.01026	1.42098	2.19453	0.0894409	
0.199683	-367.991	557.143	-23.1205	4.10807	2.31857	3.5778	0.0906658	
0.204675	-367.862	557	-23.2603	4.20588	1.2975	1.99294	0.0821341	
0.209667	-367.799	556.838	-23.5602	4.30369	2.21154	3.4215	0.0882241	
0.214659	-367.939	556.969	-23.4225	4.4015	1.27353	1.96268	0.0822522	
0.219652	-368.004	557.131	-23.1182	4.49931	2.1077	3.25927	0.0811648	
0.224644	-367.864	557.009	-23.2546	4.59713	1.24006	1.90126	0.0755472	
0.229636	-367.797	556.855	-23.5551	4.69494	2.00155	3.09905	0.0825297	
0.234628	-367.921	556.982	-23.4158	4.79275	1.19687	1.83229	0.072727	
0.23962	-367.983	557.135	-23.1148	4.89056	1.91416	2.95674	0.079461	
0.244612	-367.863	557	-23.2488	4.98837	1.22233	1.88553	0.0706408	
0.249604	-367.795	556.843	-23.5469	5.08618	1.78551	2.75887	0.0728188	
0.254596	-367.924	556.974	-23.4146	5.18399	1.20525	1.86573	0.0690957	
0.259588	-367.995	557.124	-23.1162	5.2818	1.71412	2.64328	0.0707604	
0.26458	-367.867	557	-23.2526	5.37962	1.20422	1.84567	0.0643186	
0.269572	-367.799	556.853	-23.5588	5.47743	1.60385	2.48226	0.0685952	
0.274564	-367.92	556.979	-23.4225	5.57524	1.21215	1.8699	0.0650314	
0.279556	-367.987	557.132	-23.1149	5.67305	1.51788	2.3428	0.0616936	
0.284549	-367.862	557.009	-23.2528	5.77086	1.22877	1.89373	0.0635983	
0.289541	-367.797	556.848	-23.5598	5.86867	1.41678	2.18745	0.0633616	
0.294533	-367.927	556.963	-23.4199	5.96648	1.2299	1.88818	0.0595749	
0.299525	-367.989	557.127	-23.1151	6.06429	1.34017	2.06937	0.0605637	
0.304517	-367.863	557.01	-23.2505	6.1621	1.23891	1.91853	0.0606944	
0.309509	-367.797	556.851	-23.5559	6.25992	1.2446	1.92254	0.0588937	
0.314501	-367.917	556.97	-23.4271	6.35773	1.25473	1.9281	0.056337	
0.319493	-367.986	557.126	-23.1225	6.45554	1.1618	1.78963	0.0559819	
0.324485	-367.863	557.008	-23.2487	6.55335	1.245	1.92397	0.0574644	
0.329477	-367.804	556.844	-23.551	6.65116	1.09324	1.68843	0.0552596	
0.334469	-367.932	556.964	-23.4182	6.74897	1.26151	1.94623	0.0552671	
0.339461	-367.983	557.13	-23.1135	6.84678	1.00056	1.54513	0.0524468	
0.344454	-367.858	557.008	-23.2527	6.94459	1.25154	1.93488	0.0547473	
0.349446	-367.803	556.851	-23.5646	7.04241	0.952131	1.46165	0.0522869	
0.354438	-367.932	556.974	-23.4287	7.14022	1.24927	1.92686	0.0541651	
0.35943	-367.989	557.131	-23.118	7.23803	0.868699	1.3474	0.045504	
0.364422	-367.864	557.014	-23.2536	7.33584	1.24126	1.91601	0.0505627	
0.369414	-367.807	556.851	-23.5587	7.43365	0.837801	1.28636	0.0473297	
0.374406	-367.924	556.958	-23.4183	7.53146	1.22262	1.89071	0.0501389	
0.379398	-367.983	557.119	-23.1079	7.62927	0.769218	1.18565	0.0457397	
0.38439	-367.865	557.015	-23.2425	7.72708	1.21534	1.87719	0.0491441	
0.389382	-367.803	556.86	-23.5577	7.82489	0.740202	1.13598	0.044477	
0.394374	-367.931	556.978	-23.4293	7.92271	1.19294	1.85103	0.0473458	
0.399366	-367.999	557.129	-23.1157	8.02052	0.698053	1.07032	0.0444309	
0.404358	-367.867	557.012	-23.2452	8.11833	1.17066	1.8086	0.045991	
0.409351	-367.801	556.856	-23.553	8.21614	0.681499	1.04637	0.0426541	
0.414343	-367.923	556.967	-23.4173	8.31395	1.14713	1.77612	0.0451485	
0.419335	-367.985	557.129	-23.11	8.41176	0.660338	1.0191	0.0423996	
0.424327	-367.863	557.024	-23.2502	8.50957	1.1172	1.72612	0.0441934	
0.429319	-367.803	556.869	-23.5574	8.60738	0.653756	1.00376	0.0405778	
0.434311	-367.928	556.976	-23.4132	8.7052	1.09069	1.68631	0.0432869	
0.439303	-367.988	557.13	-23.1062	8.80301	0.647393	0.994047	0.0399535	
0.444295	-367.871	557.018	-23.2502	8.90082	1.05689	1.63813	0.0419806	
0.449287	-367.805	556.855	-23.5598	8.99863	0.651073	0.997262	0.038852	
0.454279	-367.923	556.954	-23.4211	9.09644	1.02439	1.58147	0.0410949	
0.459271	-367.983	557.118	-23.1138	9.19425	0.658859	1.01703	0.0392875	
0.464263	-367.86	557.022	-23.2462	9.29206	0.983694	1.52025	0.0401929	
0.469256	-367.801	556.869	-23.5474	9.38987	0.673771	1.03807	0.0381932	
0.474248	-367.921	556.975	-23.4131	9.48768	0.948351	1.46334	0.0397804	
0.47924	-367.984	557.128	-23.1131	9.5855	0.682241	1.05146	0.0368203	
0.484232	-367.866	557.021	-23.2494	9.68331	0.9076	1.4016	0.03806	
0.489224	-367.8	556.847	-23.549	9.78112	0.701065	1.08011	0.0369442	
0.494216	-367.918	556.947	-23.4149	9.87893	0.868081	1.34049	0.0375391	
0.499208	-367.98	557.116	-23.1068	9.97674	0.713589	1.10273	0.036427	
0.5042	-367.863	557.02	-23.2472	10.0746	0.826162	1.27383	0.0362953	
0.509192	-367.809	556.872	-23.5557	10.1724	0.730165	1.12702	0.0357985	
0.514184	-367.928	556.971	-23.4178	10.2702	0.784989	1.21026	0.0356661	
0.519176	-367.981	557.128	-23.1181	10.368	0.74411	1.15015	0.0349156	
0.524168	-367.86	557.028	-23.2564	10.4658	0.742755	1.14829	0.0346972	
0.52916	-367.803	556.859	-23.5597	10.5636	0.758531	1.16933	0.0352699	
0.534153	-367.916	556.951	-23.4192	10.6614	0.701432	1.08325	0.0335194	
0.539145	-367.981	557.117	-23.1118	10.7592	0.768003	1.18705	0.0349687	
0.544137	-367.857	557.031	-23.2484	10.857	0.66343	1.02283	0.0326336	
0.549129	-367.791	556.875	-23.5478	10.9549	0.778804	1.20364	0.0342629	
0.554121	-367.924	556.966	-23.4168	11.0527	0.622434	0.962151	0.0327659	
0.559113	-367.984	557.124	-23.1173	11.1505	0.786043	1.21286	0.0329384	
0.564105	-367.86	557.028	-23.2462	11.2483	0.589693	0.908965	0.0318508	
0.569097	-367.803	556.863	-23.5506	11.3461	0.788685	1.21971	0.0328544	
0.574089	-367.918	556.957	-23.4105	11.4439	0.556213	0.856842	0.030831	
0.579081	-367.975	557.119	-23.104	11.5417	0.79347	1.2252	0.0324449	
0.584073	-367.859	557.037	-23.2508	11.6395	0.523921	0.807933	0.0303746	
0.589065	-367.804	556.879	-23.5591	11.7373	0.791478	1.22367	0.033289	
0.594058	-367.925	556.958	-23.416	11.8352	0.502478	0.771015	0.0292862	
0.59905	-367.984	557.115	-23.1133	11.933	0.788978	1.21942	0.0308704	
0.604042	-367.866	557.029	-23.2477	12.0308	0.476492	0.733872	0.0296367	
0.609034	-367.803	556.862	-23.5482	12.1286	0.783517	1.2105	0.0314086	
0.614026	-367.917	556.946	-23.4149	12.2264	0.463793	0.712275	0.0286793	
0.619018	-367.978	557.113	-23.1149	12.3242	0.774669	1.19773	0.0304949	
0.62401	-367.86	557.031	-23.249	12.422	0.448261	0.690023	0.0287284	
0.629002	-367.8	556.873	-23.5449	12.5198	0.766111	1.18285	0.0307101	
0.633994	-367.919	556.957	-23.4156	12.6176	0.441415	0.68065	0.0281035	
0.638986	-367.983	557.111	-23.1168	12.7155	0.751369	1.16124	0.029307	
0.643978	-367.87	557.028	-23.2468	12.8133	0.441882	0.677866	0.0275266	
0.64897	-367.809	556.867	-23.5472	12.9111	0.73587	1.13873	0.0295674	
0.653962	-367.928	556.943	-23.4085	13.0089	0.442056	0.681165	0.0266494	
0.658955	-367.989	557.113	-23.1107	13.1067	0.719354	1.11123	0.0282887	
0.663947	-367.869	557.042	-23.2525	13.2045	0.449176	0.692405	0.0267856	
0.668939	-367.802	556.882	-23.552	13.3023	0.699068	1.08035	0.028288	
0.673931	-367.913	556.958	-23.412	13.4001	0.455899	0.704412	0.0262557	
0.678923	-367.977	557.112	-23.1107	13.4979	0.680461	1.05095	0.0278781	
0.683915	-367.865	557.033	-23.242	13.5958	0.467332	0.722425	0.0267782	
0.688907	-367.804	556.87	-23.5325	13.6936	0.65615	1.01284	0.0272993	
0.693899	-367.922	556.942	-23.4078	13.7914	0.480717	0.742179	0.0257878	
0.698891	-367.981	557.11	-23.1233	13.8892	0.632496	0.97701	0.0271657	
0.703883	-367.866	557.042	-23.2529	13.987	0.49473	0.765249	0.0257877	
0.708875	-367.805	556.883	-23.5449	14.0848	0.608247	0.938454	0.0256501	
0.713867	-367.919	556.953	-23.4159	14.1826	0.507323	0.784064	0.0258756	
0.71886	-367.986	557.105	-23.1187	14.2804	0.581178	0.897667	0.0255058	
0.723852	-367.864	557.031	-23.2467	14.3782	0.524228	0.806354	0.0250477	
0.728844	-367.797	556.87	-23.5435	14.4761	0.554366	0.858636	0.0250289	
0.733836	-367.91	556.939	-23.4125	14.5739	0.535438	0.825601	0.0248832	
0.738828	-367.974	557.106	-23.1201	14.6717	0.528846	0.81651	0.0251601	
0.74382	-367.862	557.05	-23.2506	14.7695	0.548619	0.845955	0.0249552	
0.748812	-367.795	556.892	-23.5421	14.8673	0.501007	0.77398	0.0243555	
0.753804	-367.904	556.951	-23.4058	14.9651	0.558861	0.861604	0.0248826	
0.758796	-367.965	557.108	-23.1196	15.0629	0.476804	0.736517	0.0237025	
0.763788	-367.86	557.04	-23.2523	15.1607	0.568316	0.876891	0.0244957	
0.76878	-367.793	556.879	-23.5319	15.2585	0.449853	0.695566	0.0239799	
0.773772	-367.901	556.945	-23.4068	15.3564	0.576282	0.888065	0.0243449	
0.778764	-367.973	557.106	-23.1247	15.4542	0.427596	0.659328	0.0227269	
0.783757	-367.868	557.049	-23.246	15.552	0.580934	0.897907	0.0245927	
0.788749	-367.802	556.89	-23.5215	15.6498	0.406021	0.624782	0.0228334	
0.793741	-367.906	556.95	-23.4006	15.7476	0.585494	0.90463	0.0243249	
0.798733	-367.966	557.109	-23.124	15.8454	0.385402	0.593366	0.0222029	
0.803725	-367.861	557.049	-23.2482	15.9432	0.58803	0.907477	0.0233704	
0.808717	-367.805	556.882	-23.5269	16.041	0.367467	0.567222	0.0227513	
0.813709	-367.913	556.931	-23.402	16.1388	0.587318	0.907362	0.0232868	
0.818701	-367.974	557.1	-23.1245	16.2367	0.355428	0.546944	0.0210411	
0.823693	-367.873	557.062	-23.2452	16.3345	0.585148	0.90443	0.0236322	
0.828685	-367.813	556.902	-23.5214	16.4323	0.343227	0.528481	0.0219853	
0.833677	-367.91	556.939	-23.4059	16.5301	0.581572	0.897971	0.0227273	
0.838669	-367.967	557.096	-23.134	16.6279	0.337995	0.519823	0.0215065	
0.843661	-367.873	557.047	-23.2572	16.7257	0.575088	0.889073	0.0231294	
0.848654	-367.814	556.884	-23.5355	16.8235	0.333766	0.513023	0.0209033	
0.853646	-367.904	556.937	-23.4125	16.9213	0.567582	0.876908	0.0222821	
0.858638	-367.964	557.101	-23.124	17.0191	0.334336	0.514021	0.0208643	
0.86363	-367.876	557.058	-23.2372	17.117	0.557706	0.861627	0.0221981	
0.868622	-367.813	556.9	-23.5164	17.2148	0.33805	0.519692	0.019946	
0.873614	-367.903	556.94	-23.4036	17.3126	0.546241	0.844392	0.0221805	
0.878606	-367.967	557.097	-23.1361	17.4104	0.344244	0.529492	0.0205378	
0.883598	-367.878	557.056	-23.2521	17.5082	0.533584	0.823911	0.0213998	
0.88859	-367.815	556.889	-23.5215	17.606	0.351942	0.542294	0.0206296	
0.893582	-367.901	556.928	-23.4102	17.7038	0.518545	0.801397	0.0213025	
0.898574	-367.966	557.101	-23.1351	17.8016	0.363009	0.559018	0.0202162	
0.903566	-367.876	557.075	-23.2401	17.8994	0.503234	0.777552	0.0213555	
0.908559	-367.81	556.909	-23.5192	17.9973	0.373237	0.574986	0.0204382	
0.913551	-367.895	556.931	-23.4242	18.0951	0.485967	0.750449	0.0207271	
0.918543	-367.955	557.09	-23.1534	18.1929	0.386042	0.594399	0.0199937	
0.923535	-367.874	557.06	-23.2415	18.2907	0.468478	0.723405	0.0205713	
0.928527	-367.811	556.896	-23.505	18.3885	0.396846	0.613188	0.0197777	
0.933519	-367.887	556.926	-23.4205	18.4863	0.449855	0.693387	0.0200108	
0.938511	-367.96	557.094	-23.1573	18.5841	0.409168	0.631515	0.0198901	
0.943503	-367.887	557.071	-23.2355	18.6819	0.430659	0.664573	0.0197225	
0.948495	-367.815	556.908	-23.4987	18.7797	0.420423	0.648716	0.0195944	
0.953487	-367.889	556.931	-23.4221	18.8776	0.410624	0.634035	0.0195088	
0.958479	-367.958	557.092	-23.1579	18.9754	0.431729	0.666314	0.0195965	
0.963471	-367.891	557.066	-23.2311	19.0732	0.39115	0.603738	0.0188386	
0.968463	-367.826	556.904	-23.4982	19.171	0.440429	0.679861	0.0197452	
0.973456	-367.884	556.925	-23.4297	19.2688	0.371819	0.57401	0.0188196	
0.978448	-367.949	557.091	-23.1621	19.3666	0.449474	0.694169	0.019051	
0.98344	-367.889	557.079	-23.2261	19.4644	0.353247	0.54496	0.0187392	
0.988432	-367.819	556.917	-23.4921	19.5622	0.455929	0.704973	0.0194077	
0.993424	-367.877	556.928	-23.4313	19.66	0.336094	0.517236	0.0179272	
0.998416	-367.952	557.084	-23.1667	19.7579	0.46154	0.7135	0.0193944	
1.00341	-367.91	557.067	-23.2238	19.8557	0.319424	0.492617	0.0182702	
1.0084	-367.834	556.903	-23.4952	19.9535	0.466418	0.720605	0.0188332	
1.01339	-367.874	556.926	-23.444	20.0513	0.304648	0.469071	0.0179385	
1.01838	-367.953	557.095	-23.1724	20.1491	0.468326	0.723872	0.019213	
1.02338	-367.912	557.076	-23.2217	20.2469	0.292678	0.450455	0.0176122	
1.02837	-367.83	556.911	-23.4885	20.3447	0.47006	0.725879	0.0186836	
1.03336	-367.87	556.927	-23.442	20.4425	0.282201	0.434373	0.0172165	
1.03835	-367.951	557.086	-23.1742	20.5403	0.46873	0.724472	0.0189755	
1.04334	-367.912	557.069	-23.2178	20.6382	0.275797	0.423098	0.0171594	
1.04834	-367.83	556.903	-23.4849	20.736	0.466831	0.721244	0.018683	
1.05333	-367.866	556.918	-23.4436	20.8338	0.270439	0.416353	0.0171139	
1.05832	-367.947	557.09	-23.1726	20.9316	0.462689	0.714667	0.01848	
1.06331	-367.92	557.091	-23.2003	21.0294	0.269845	0.414352	0.016964	
1.06831	-367.835	556.926	-23.4829	21.1272	0.45725	0.706442	0.0183192	
1.0733	-367.852	556.927	-23.4655	21.225	0.270422	0.41634	0.0167599	
1.07829	-367.945	557.087	-23.1827	21.3228	0.450451	0.695502	0.018244	
1.08328	-367.928	557.07	-23.205	21.4206	0.274639	0.422174	0.0168352	
1.08827	-367.833	556.908	-23.4746	21.5185	0.441565	0.682426	0.0178666	
1.09327	-367.854	556.922	-23.4502	21.6163	0.280447	0.431884	0.0166183	
1.09826	-367.947	557.089	-23.1851	21.7141	0.432342	0.66734	0.0171198	
1.10325	-367.927	557.087	-23.2001	21.8119	0.287616	0.443674	0.0162758	
1.10824	-367.833	556.922	-23.4766	21.9097	0.420887	0.649921	0.0171705	
1.11323	-367.844	556.915	-23.4688	22.0075	0.297177	0.458049	0.0163088	
1.11823	-367.944	557.077	-23.1855	22.1053	0.408868	0.631347	0.0172053	
1.12322	-367.941	557.081	-23.196	22.2031	0.306666	0.473494	0.016434	
1.12821	-367.843	556.917	-23.4761	22.301	0.395516	0.610789	0.0168343	
1.1332	-367.844	556.915	-23.4636	22.3988	0.317426	0.489347	0.0162644	
1.13819	-367.936	557.084	-23.1832	22.4966	0.381598	0.589372	0.0167425	
1.14319	-367.928	557.093	-23.1875	22.5944	0.327596	0.505771	0.0163122	
1.14818	-367.831	556.922	-23.4677	22.6922	0.366828	0.566473	0.0163734	
1.15317	-367.832	556.908	-23.4713	22.79	0.338534	0.522083	0.0161203	
1.15816	-367.941	557.075	-23.1942	22.8878	0.351555	0.542957	0.0161839	
1.16315	-367.952	557.083	-23.1902	22.9856	0.347992	0.537424	0.016413	
1.16815	-367.846	556.916	-23.4667	23.0834	0.336477	0.518863	0.0157281	
1.17314	-367.835	556.91	-23.4761	23.1813	0.357551	0.552063	0.0163734	
1.17813	-367.934	557.087	-23.1904	23.2791	0.320799	0.494927	0.0155641	
1.18312	-367.944	557.101	-23.1749	23.3769	0.366048	0.565348	0.0159575	
1.18812	-367.843	556.932	-23.4696	23.4747	0.30558	0.4711	0.0160092	
1.19311	-367.825	556.914	-23.4885	23.5725	0.373628	0.576705	0.0159545	
1.1981	-367.931	557.07	-23.197	23.6703	0.290419	0.448474	0.0152852	
1.20309	-367.954	557.082	-23.1766	23.7681	0.380114	0.586827	0.0161212	
1.20808	-367.847	556.921	-23.4678	23.8659	0.276599	0.426515	0.0151584	
1.21308	-367.823	556.904	-23.4945	23.9637	0.385174	0.594998	0.0160176	
1.21807	-367.932	557.074	-23.1984	24.0616	0.263869	0.406522	0.0150296	
1.22306	-367.959	557.096	-23.1624	24.1594	0.389137	0.600961	0.0159848	
1.22805	-367.847	556.926	-23.4614	24.2572	0.252428	0.388723	0.0147542	
1.23304	-367.819	556.913	-23.5018	24.355	0.391554	0.605324	0.0158803	
1.23804	-367.934	557.08	-23.2022	24.4528	0.243067	0.373667	0.0146786	
1.24303	-367.961	557.091	-23.1578	24.5506	0.392667	0.607214	0.0159271	
1.24802	-367.845	556.922	-23.4514	24.6484	0.235512	0.361474	0.0145806	
1.25301	-367.814	556.907	-23.4933	24.7462	0.392518	0.606827	0.0154494	
1.258	-367.934	557.076	-23.201	24.844	0.230191	0.353947	0.0145264	
1.263	-367.967	557.094	-23.158	24.9419	0.391061	0.604454	0.0151804	
1.26799	-367.842	556.921	-23.4572	25.0397	0.226882	0.34908	0.0149476	
1.27298	-367.807	556.898	-23.5019	25.1375	0.388593	0.599054	0.0154831	
1.27797	-367.932	557.067	-23.1934	25.2353	0.226534	0.350045	0.0143736	
1.28296	-367.972	557.092	-23.1448	25.3331	0.383916	0.593434	0.01583	
1.28796	-367.843	556.929	-23.4506	25.4309	0.228558	0.351502	0.0137658	
1.29295	-367.803	556.903	-23.5082	25.5287	0.378455	0.5851	0.0151564	
1.29794	-367.929	557.072	-23.2056	25.6265	0.232405	0.357448	0.0142766	
1.30293	-367.974	557.1	-23.1447	25.7243	0.371859	0.574409	0.0154081	
1.30792	-367.845	556.935	-23.4478	25.8222	0.237999	0.366549	0.0140395	
1.31292	-367.797	556.906	-23.5059	25.92	0.363826	0.562232	0.0147415	
1.31791	-367.93	557.07	-23.2018	26.0178	0.245467	0.377338	0.0139071	
1.3229	-367.98	557.089	-23.1395	26.1156	0.354809	0.54844	0.0147856	
1.32789	-367.856	556.922	-23.4519	26.2134	0.253155	0.390015	0.0137077	
1.33289	-367.802	556.9	-23.5211	26.3112	0.344752	0.532899	0.0142787	
1.33788	-367.927	557.072	-23.2095	26.409	0.262277	0.404364	0.0140163	
1.34287	-367.98	557.106	-23.1447	26.5068	0.334361	0.515935	0.0144167	
1.34786	-367.844	556.932	-23.4584	26.6046	0.271203	0.418453	0.0139884	
1.35285	-367.795	556.894	-23.5228	26.7025	0.322881	0.498146	0.0143969	
1.35785	-367.937	557.062	-23.2113	26.8003	0.28088	0.43316	0.0137277	
1.36284	-367.991	557.097	-23.1389	26.8981	0.310491	0.479518	0.0140527	
1.36783	-367.846	556.927	-23.4501	26.9959	0.289864	0.44741	0.0139759	
1.37282	-367.787	556.902	-23.5283	27.0937	0.298111	0.459645	0.0138574	
1.37781	-367.933	557.077	-23.2052	27.1915	0.298685	0.461191	0.0138456	
1.38281	-367.998	557.105	-23.1263	27.2893	0.285352	0.439905	0.0136833	
1.3878	-367.853	556.929	-23.4566	27.3871	0.306748	0.474126	0.0136477	
1.39279	-367.79	556.89	-23.5372	27.4849	0.272388	0.419957	0.0132949	
1.39778	-367.932	557.071	-23.2138	27.5828	0.314596	0.485713	0.0136271	
1.40277	-367.993	557.105	-23.129	27.6806	0.259503	0.400642	0.0133561	
1.40777	-367.849	556.921	-23.443	27.7784	0.321354	0.496178	0.0135321	
1.41276	-367.789	556.889	-23.5313	27.8762	0.247538	0.381414	0.0130666	
