Scan started at 15:02:45 30/09/2014
Time (s)	x (nT)	y (nT)	z (nT)	Frequency (Hz)	x (nT)	y (nT)	z (nT)
0	-367.606	556.904	-23.653	0.195622	44.4528	69.0285	5.90622	
0.00499208	-367.772	557.044	-23.3669	0.293434	36.126	55.3675	5.43211	
0.00998416	-367.869	557.16	-23.1865	0.391245	22.7793	23.7946	5.34585	
0.0149762	-367.618	556.992	-23.5755	0.489056	23.5532	28.8093	4.32535	
0.0199683	-367.52	556.876	-23.7556	0.586867	13.7388	15.7311	2.5388	
0.0249604	-367.774	557.048	-23.3632	0.684678	15.9564	22.2713	1.95825	
0.0299525	-367.872	557.162	-23.1786	0.782489	9.86212	13.4622	1.52347	
0.0349446	-367.623	556.986	-23.5718	0.880301	10.7535	16.0846	1.34172	
0.0399366	-367.525	556.873	-23.7576	0.978112	7.64041	10.2344	1.12942	
0.0449287	-367.776	557.052	-23.37	1.07592	9.0435	12.7427	0.903943	
0.0499208	-367.869	557.168	-23.1945	1.17373	6.30063	8.7415	0.740291	
0.0549129	-367.615	556.986	-23.576	1.27155	7.4572	10.8135	0.439839	
0.059905	-367.524	556.868	-23.7479	1.36936	5.46112	7.72229	0.379718	
0.064897	-367.77	557.049	-23.3537	1.46717	6.22606	9.1999	0.394694	
0.0698891	-367.86	557.17	-23.17	1.56498	4.94369	7.13475	0.367198	
0.0748812	-367.616	556.993	-23.5679	1.66279	5.23443	7.80998	0.345731	
0.0798733	-367.52	556.867	-23.7598	1.7606	4.41108	6.48204	0.332323	
0.0848654	-367.771	557.041	-23.3776	1.85841	4.64954	6.87328	0.305684	
0.0898574	-367.865	557.17	-23.1925	1.95622	4.2128	6.1198	0.329137	
0.0948495	-367.615	556.991	-23.581	2.05403	4.15352	5.99123	0.272179	
0.0998416	-367.53	556.87	-23.7567	2.15185	4.01713	5.74049	0.297698	
0.104834	-367.783	557.053	-23.3594	2.24966	3.69275	5.24168	0.27122	
0.109826	-367.876	557.167	-23.179	2.34747	3.78346	5.43241	0.267517	
0.114818	-367.616	556.992	-23.5629	2.44528	3.32148	4.71766	0.265501	
0.11981	-367.515	556.873	-23.7491	2.54309	3.55059	5.15805	0.231137	
0.124802	-367.772	557.045	-23.3675	2.6409	2.97021	4.21261	0.232293	
0.129794	-367.874	557.166	-23.1824	2.73871	3.39721	4.93209	0.210103	
0.134786	-367.619	556.995	-23.5773	2.83652	2.63068	3.69692	0.207263	
0.139778	-367.519	556.871	-23.7522	2.93434	3.27168	4.74609	0.194237	
0.14477	-367.777	557.04	-23.3545	3.03215	2.41096	3.31888	0.190394	
0.149762	-367.871	557.166	-23.1697	3.12996	3.0895	4.50624	0.187007	
0.154754	-367.617	556.994	-23.5575	3.22777	2.21198	3.03404	0.179681	
0.159747	-367.525	556.872	-23.7514	3.32558	2.95127	4.31004	0.177963	
0.164739	-367.781	557.048	-23.3732	3.42339	2.02238	2.78159	0.168653	
0.169731	-367.877	557.166	-23.1944	3.5212	2.82604	4.14696	0.172153	
0.174723	-367.622	556.993	-23.5805	3.61901	1.86349	2.52421	0.162624	
0.179715	-367.527	556.872	-23.7611	3.71683	2.71546	3.96013	0.159775	
0.184707	-367.786	557.048	-23.3687	3.81464	1.73667	2.3161	0.155919	
0.189699	-367.875	557.164	-23.1762	3.91245	2.59366	3.7914	0.152123	
0.194691	-367.613	556.988	-23.554	4.01026	1.66818	2.21769	0.148414	
0.199683	-367.522	556.864	-23.7468	4.10807	2.4748	3.62367	0.142969	
0.204675	-367.782	557.041	-23.3741	4.20588	1.55288	2.07611	0.13543	
0.209667	-367.877	557.171	-23.1901	4.30369	2.35653	3.44458	0.140581	
0.214659	-367.614	556.99	-23.5786	4.4015	1.49477	1.99943	0.131572	
0.219652	-367.52	556.864	-23.7576	4.49931	2.24996	3.30017	0.133139	
0.224644	-367.784	557.044	-23.3657	4.59713	1.46863	1.9671	0.127982	
0.229636	-367.873	557.172	-23.1776	4.69494	2.14788	3.12323	0.132776	
0.234628	-367.616	556.99	-23.5642	4.79275	1.43344	1.91104	0.127346	
0.23962	-367.529	556.867	-23.7538	4.89056	2.03848	2.95963	0.128645	
0.244612	-367.778	557.049	-23.3736	4.98837	1.43114	1.92841	0.122156	
0.249604	-367.871	557.161	-23.1914	5.08618	1.94104	2.82375	0.121085	
0.254596	-367.617	556.98	-23.5701	5.18399	1.37776	1.90222	0.115877	
0.259588	-367.52	556.87	-23.7505	5.2818	1.82051	2.64561	0.114372	
0.26458	-367.782	557.046	-23.3671	5.37962	1.38053	1.91005	0.107001	
0.269572	-367.874	557.164	-23.1776	5.47743	1.73377	2.52295	0.108523	
0.274564	-367.609	556.99	-23.5583	5.57524	1.3672	1.91066	0.104723	
0.279556	-367.519	556.863	-23.751	5.67305	1.63459	2.36343	0.0986989	
0.284549	-367.787	557.04	-23.3738	5.77086	1.3601	1.90271	0.100162	
0.289541	-367.88	557.168	-23.1913	5.86867	1.55366	2.2363	0.097191	
0.294533	-367.617	556.993	-23.5668	5.96648	1.37282	1.93854	0.100179	
0.299525	-367.528	556.868	-23.7454	6.06429	1.43743	2.07851	0.0914863	
0.304517	-367.779	557.043	-23.3623	6.1621	1.36025	1.95081	0.0933077	
0.309509	-367.866	557.17	-23.1776	6.25992	1.3609	1.95409	0.0930297	
0.314501	-367.615	556.992	-23.5615	6.35773	1.3569	1.95859	0.0909758	
0.319493	-367.522	556.869	-23.7526	6.45554	1.28151	1.83002	0.0911036	
0.324485	-367.786	557.049	-23.3864	6.55335	1.35838	1.95733	0.0913028	
0.329477	-367.88	557.168	-23.1967	6.65116	1.20727	1.70438	0.0894318	
0.334469	-367.614	556.992	-23.5666	6.74897	1.3609	1.96182	0.0903089	
0.339461	-367.519	556.866	-23.7531	6.84678	1.14119	1.5967	0.0867094	
0.344454	-367.776	557.049	-23.3655	6.94459	1.3524	1.9641	0.0866743	
0.349446	-367.861	557.174	-23.1757	7.04241	1.05675	1.47768	0.0852006	
0.354438	-367.605	556.989	-23.5551	7.14022	1.337	1.95624	0.0852328	
0.35943	-367.517	556.865	-23.7478	7.23803	0.997514	1.39111	0.0755947	
0.364422	-367.776	557.041	-23.3808	7.33584	1.31909	1.93757	0.0812611	
0.369414	-367.868	557.172	-23.1923	7.43365	0.944857	1.30667	0.0766124	
0.374406	-367.6	556.997	-23.5633	7.53146	1.31291	1.91962	0.0794287	
0.379398	-367.514	556.866	-23.7416	7.62927	0.900601	1.22881	0.0769746	
0.38439	-367.791	557.045	-23.3641	7.72708	1.29324	1.88957	0.0796129	
0.389382	-367.874	557.169	-23.1874	7.82489	0.864283	1.17219	0.0758863	
0.394374	-367.61	556.989	-23.5641	7.92271	1.26736	1.85929	0.0788697	
0.399366	-367.532	556.865	-23.7548	8.02052	0.829289	1.12841	0.0714962	
0.404358	-367.793	557.038	-23.3898	8.11833	1.23795	1.82514	0.072867	
0.409351	-367.874	557.164	-23.194	8.21614	0.79241	1.07925	0.0690432	
0.414343	-367.613	556.981	-23.5579	8.31395	1.22084	1.79634	0.0698944	
0.419335	-367.526	556.851	-23.7485	8.41176	0.768958	1.0406	0.0686689	
0.424327	-367.783	557.039	-23.3715	8.50957	1.19187	1.75341	0.0670708	
0.429319	-367.866	557.173	-23.1777	8.60738	0.764254	1.03346	0.0672371	
0.434311	-367.6	557.001	-23.5523	8.7052	1.157	1.7015	0.0677139	
0.439303	-367.514	556.864	-23.7465	8.80301	0.762132	1.03413	0.0668704	
0.444295	-367.783	557.036	-23.3832	8.90082	1.12664	1.65263	0.066669	
0.449287	-367.871	557.171	-23.1916	8.99863	0.751565	1.02596	0.0647831	
0.454279	-367.603	556.991	-23.5576	9.09644	1.09195	1.60196	0.0663347	
0.459271	-367.518	556.855	-23.7472	9.19425	0.758927	1.04496	0.0636945	
0.464263	-367.787	557.035	-23.3696	9.29206	1.05444	1.543	0.0642258	
0.469256	-367.876	557.167	-23.1778	9.38987	0.766476	1.0615	0.0616099	
0.474248	-367.608	556.988	-23.5461	9.48768	1.01118	1.47603	0.0619897	
0.47924	-367.521	556.861	-23.7402	9.5855	0.776645	1.08145	0.0612152	
0.484232	-367.789	557.037	-23.3823	9.68331	0.974261	1.41994	0.0606874	
0.489224	-367.876	557.166	-23.1902	9.78112	0.781765	1.10221	0.0597288	
0.494216	-367.609	556.986	-23.5505	9.87893	0.934691	1.35879	0.0587104	
0.499208	-367.516	556.863	-23.7407	9.97674	0.791349	1.12216	0.0575738	
0.5042	-367.781	557.052	-23.3831	10.0746	0.893156	1.29434	0.0582283	
0.509192	-367.873	557.175	-23.1806	10.1724	0.806036	1.14887	0.0565729	
0.514184	-367.604	556.99	-23.535	10.2702	0.849559	1.22487	0.057454	
0.519176	-367.512	556.867	-23.7495	10.368	0.816381	1.17106	0.0551991	
0.524168	-367.779	557.053	-23.4034	10.4658	0.815323	1.16657	0.0566077	
0.52916	-367.869	557.177	-23.1992	10.5636	0.825657	1.18731	0.0563924	
0.534153	-367.607	556.992	-23.5439	10.6614	0.772487	1.10316	0.0557123	
0.539145	-367.527	556.867	-23.7421	10.7592	0.833119	1.20373	0.0534552	
0.544137	-367.79	557.047	-23.3859	10.857	0.737081	1.04225	0.0542332	
0.549129	-367.874	557.169	-23.1802	10.9549	0.839719	1.22104	0.0545554	
0.554121	-367.607	556.984	-23.5359	11.0527	0.696948	0.981848	0.0528686	
0.559113	-367.523	556.862	-23.748	11.1505	0.844541	1.22913	0.0534381	
0.564105	-367.793	557.051	-23.3945	11.2483	0.662255	0.925887	0.0522191	
0.569097	-367.876	557.179	-23.1939	11.3461	0.848841	1.23743	0.0530192	
0.574089	-367.608	556.998	-23.545	11.4439	0.63607	0.87893	0.0517728	
0.579081	-367.52	556.872	-23.737	11.5417	0.846921	1.23804	0.0528607	
0.584073	-367.792	557.051	-23.3853	11.6395	0.60228	0.829933	0.0509034	
0.589065	-367.876	557.169	-23.1835	11.7373	0.847709	1.23862	0.0513802	
0.594058	-367.603	556.985	-23.5392	11.8352	0.581728	0.792425	0.0501198	
0.59905	-367.528	556.864	-23.7479	11.933	0.840398	1.23389	0.049821	
0.604042	-367.799	557.043	-23.4028	12.0308	0.55704	0.756717	0.0486102	
0.609034	-367.879	557.172	-23.1958	12.1286	0.832772	1.22314	0.0486783	
0.614026	-367.602	556.992	-23.543	12.2264	0.542355	0.733051	0.0471798	
0.619018	-367.515	556.858	-23.7424	12.3242	0.826008	1.21248	0.048558	
0.62401	-367.791	557.04	-23.3887	12.422	0.528293	0.712456	0.0458404	
0.629002	-367.874	557.166	-23.1845	12.5198	0.811864	1.19342	0.0476171	
0.633994	-367.599	556.981	-23.528	12.6176	0.521967	0.702643	0.0457428	
0.638986	-367.519	556.865	-23.7422	12.7155	0.80144	1.17501	0.0467521	
0.643978	-367.794	557.053	-23.4103	12.8133	0.517208	0.699289	0.0450085	
0.64897	-367.882	557.173	-23.2023	12.9111	0.783883	1.15034	0.0452974	
0.653962	-367.611	556.989	-23.5332	13.0089	0.517745	0.701209	0.0448506	
0.658955	-367.52	556.86	-23.7394	13.1067	0.766949	1.12454	0.0459717	
0.663947	-367.792	557.049	-23.3987	13.2045	0.520484	0.709452	0.0437053	
0.668939	-367.881	557.176	-23.194	13.3023	0.748194	1.09367	0.0448987	
0.673931	-367.603	556.987	-23.5335	13.4001	0.523913	0.720781	0.0428837	
0.678923	-367.516	556.861	-23.7338	13.4979	0.727336	1.06345	0.0441962	
0.683915	-367.791	557.037	-23.4019	13.5958	0.53431	0.739662	0.0429396	
0.688907	-367.869	557.17	-23.201	13.6936	0.703755	1.02573	0.0433565	
0.693899	-367.601	556.99	-23.5339	13.7914	0.544021	0.758589	0.0426847	
0.698891	-367.525	556.859	-23.7287	13.8892	0.680891	0.98905	0.0427363	
0.703883	-367.792	557.044	-23.3851	13.987	0.555103	0.781046	0.0422611	
0.708875	-367.876	557.17	-23.186	14.0848	0.656476	0.9517	0.042217	
0.713867	-367.611	556.988	-23.5283	14.1826	0.565242	0.799826	0.0419027	
0.71886	-367.531	556.867	-23.7363	14.2804	0.63124	0.910121	0.0423879	
0.723852	-367.795	557.057	-23.4066	14.3782	0.57649	0.820428	0.0408255	
0.728844	-367.873	557.183	-23.2037	14.4761	0.604519	0.870802	0.0415428	
0.733836	-367.609	556.997	-23.5316	14.5739	0.58685	0.841201	0.0403314	
0.738828	-367.526	556.863	-23.7262	14.6717	0.580165	0.829928	0.0404037	
0.74382	-367.799	557.045	-23.3904	14.7695	0.596267	0.858066	0.0399937	
0.748812	-367.876	557.177	-23.1928	14.8673	0.553845	0.787123	0.0398371	
0.753804	-367.595	556.992	-23.5343	14.9651	0.605632	0.875051	0.0394938	
0.758796	-367.518	556.861	-23.7453	15.0629	0.530304	0.750096	0.0394965	
0.763788	-367.789	557.042	-23.4094	15.1607	0.612809	0.889132	0.0392415	
0.76878	-367.87	557.169	-23.1978	15.2585	0.506244	0.709621	0.0390641	
0.773772	-367.604	556.987	-23.5277	15.3564	0.618359	0.899379	0.0386332	
0.778764	-367.52	556.857	-23.7254	15.4542	0.483997	0.674471	0.0382453	
0.783757	-367.787	557.037	-23.3909	15.552	0.623542	0.908998	0.0383321	
0.788749	-367.867	557.177	-23.1941	15.6498	0.462801	0.641072	0.0370775	
0.793741	-367.601	557	-23.5296	15.7476	0.625852	0.914356	0.0379272	
0.798733	-367.52	556.861	-23.7306	15.8454	0.443587	0.60929	0.0367592	
0.803725	-367.789	557.037	-23.4018	15.9432	0.626879	0.917526	0.0375971	
0.808717	-367.872	557.171	-23.1962	16.041	0.428541	0.584011	0.0364683	
0.813709	-367.602	556.992	-23.5194	16.1388	0.626804	0.918033	0.0369195	
0.818701	-367.527	556.863	-23.7227	16.2367	0.414404	0.56095	0.0358598	
0.823693	-367.798	557.043	-23.391	16.3345	0.624176	0.91487	0.0367747	
0.828685	-367.871	557.178	-23.1893	16.4323	0.404826	0.546146	0.0359463	
0.833677	-367.596	556.997	-23.526	16.5301	0.619494	0.908168	0.0365555	
0.838669	-367.523	556.854	-23.7291	16.6279	0.397249	0.534718	0.0347883	
0.843661	-367.798	557.034	-23.4006	16.7257	0.612873	0.898597	0.0361365	
0.848654	-367.877	557.174	-23.1951	16.8235	0.393773	0.529893	0.034859	
0.853646	-367.604	556.998	-23.518	16.9213	0.604494	0.886866	0.0355188	
0.858638	-367.523	556.865	-23.7246	17.0191	0.392673	0.530005	0.0343386	
0.86363	-367.789	557.042	-23.3953	17.117	0.594542	0.871247	0.034513	
0.868622	-367.87	557.166	-23.1885	17.2148	0.394604	0.534276	0.0345114	
0.873614	-367.606	556.988	-23.5182	17.3126	0.582846	0.85373	0.0349461	
0.878606	-367.529	556.865	-23.7299	17.4104	0.398903	0.544947	0.0336072	
0.883598	-367.794	557.049	-23.4076	17.5082	0.569718	0.833454	0.034638	
0.88859	-367.872	557.175	-23.2007	17.606	0.404457	0.55613	0.0334603	
0.893582	-367.607	556.993	-23.5183	17.7038	0.555669	0.811268	0.0339707	
0.898574	-367.522	556.859	-23.7225	17.8016	0.412602	0.571812	0.0330835	
0.903566	-367.79	557.034	-23.4	17.8994	0.539385	0.786963	0.0335589	
0.908559	-367.874	557.171	-23.192	17.9973	0.421597	0.588272	0.0325421	
0.913551	-367.603	556.99	-23.5162	18.0951	0.522874	0.760886	0.0329985	
0.918543	-367.525	556.854	-23.7236	18.1929	0.430728	0.605997	0.0325527	
0.923535	-367.79	557.034	-23.4041	18.2907	0.505926	0.733393	0.0323615	
0.928527	-367.874	557.168	-23.1977	18.3885	0.440848	0.624299	0.0318774	
0.933519	-367.609	556.983	-23.5162	18.4863	0.487045	0.704363	0.0321689	
0.938511	-367.522	556.851	-23.7216	18.5841	0.45069	0.642563	0.0317111	
0.943503	-367.79	557.039	-23.4031	18.6819	0.469681	0.674792	0.0320386	
0.948495	-367.874	557.171	-23.1998	18.7797	0.459921	0.659321	0.0314472	
0.953487	-367.602	556.989	-23.5233	18.8776	0.450748	0.645163	0.0313707	
0.958479	-367.521	556.856	-23.727	18.9754	0.469049	0.675625	0.0315784	
0.963471	-367.8	557.04	-23.4041	19.0732	0.432274	0.614711	0.0308754	
0.968463	-367.881	557.174	-23.2016	19.171	0.478026	0.690411	0.0315355	
0.973456	-367.61	556.987	-23.5206	19.2688	0.413959	0.584594	0.0308392	
0.978448	-367.532	556.847	-23.7196	19.3666	0.484413	0.703144	0.0312145	
0.98344	-367.798	557.028	-23.4	19.4644	0.396884	0.556693	0.0303932	
0.988432	-367.874	557.172	-23.1966	19.5622	0.49104	0.714006	0.0307481	
0.993424	-367.603	556.994	-23.5153	19.66	0.380804	0.529146	0.0300429	
0.998416	-367.527	556.862	-23.733	19.7579	0.494972	0.722187	0.030498	
1.00341	-367.787	557.047	-23.4225	19.8557	0.365424	0.50427	0.0297825	
1.0084	-367.855	557.176	-23.2055	19.9535	0.498877	0.728896	0.0301962	
1.01339	-367.597	556.989	-23.5144	20.0513	0.352207	0.482038	0.0292379	
1.01838	-367.525	556.855	-23.7187	20.1491	0.500419	0.732061	0.0296952	
1.02338	-367.792	557.037	-23.409	20.2469	0.340304	0.462642	0.0290853	
1.02837	-367.872	557.174	-23.2041	20.3447	0.500589	0.73403	0.0295343	
1.03336	-367.607	556.994	-23.5128	20.4425	0.331438	0.447915	0.0287544	
1.03835	-367.532	556.858	-23.7255	20.5403	0.499485	0.732484	0.0291173	
1.04334	-367.799	557.042	-23.4183	20.6382	0.324494	0.436147	0.0287298	
1.04834	-367.873	557.178	-23.2082	20.736	0.49693	0.72887	0.0288715	
1.05333	-367.604	556.993	-23.5136	20.8338	0.319507	0.429293	0.0283681	
1.05832	-367.531	556.849	-23.7142	20.9316	0.492888	0.722963	0.0290943	
1.06331	-367.798	557.031	-23.3966	21.0294	0.317312	0.427155	0.0279309	
1.06831	-367.872	557.178	-23.1915	21.1272	0.48706	0.714188	0.0287725	
1.0733	-367.61	557.001	-23.5096	21.225	0.317424	0.428841	0.0279874	
1.07829	-367.537	556.859	-23.7255	21.3228	0.479712	0.703363	0.0280869	
1.08328	-367.794	557.034	-23.4229	21.4206	0.32015	0.434558	0.0278619	
1.08827	-367.872	557.173	-23.2103	21.5185	0.471519	0.690193	0.027786	
1.09327	-367.618	556.994	-23.5061	21.6163	0.324649	0.443202	0.027206	
1.09826	-367.531	556.86	-23.7081	21.7141	0.461859	0.674936	0.0277045	
1.10325	-367.788	557.041	-23.4041	21.8119	0.330159	0.455208	0.0272624	
1.10824	-367.867	557.174	-23.1951	21.9097	0.450545	0.658094	0.0275972	
1.11323	-367.601	556.994	-23.5065	22.0075	0.337813	0.468452	0.0265681	
1.11823	-367.522	556.856	-23.7298	22.1053	0.43925	0.639105	0.0275187	
1.12322	-367.783	557.034	-23.421	22.2031	0.345613	0.483557	0.0264971	
1.12821	-367.862	557.171	-23.2015	22.301	0.426174	0.618884	0.0270688	
1.1332	-367.602	556.996	-23.5017	22.3988	0.354183	0.499406	0.0266569	
1.13819	-367.526	556.856	-23.7108	22.4966	0.413163	0.597334	0.026638	
1.14319	-367.79	557.031	-23.4071	22.5944	0.363493	0.515191	0.0265117	
1.14818	-367.864	557.172	-23.2001	22.6922	0.398935	0.574536	0.0262204	
1.15317	-367.596	556.992	-23.5129	22.79	0.371864	0.530843	0.0263166	
1.15816	-367.517	556.848	-23.73	22.8878	0.384431	0.55166	0.0262871	
1.16315	-367.789	557.029	-23.4253	22.9856	0.381059	0.545882	0.0258949	
1.16815	-367.871	557.169	-23.2108	23.0834	0.370039	0.527577	0.026294	
1.17314	-367.607	556.983	-23.505	23.1813	0.388832	0.560174	0.0258064	
1.17813	-367.532	556.845	-23.7067	23.2791	0.354881	0.50374	0.02606	
1.18312	-367.792	557.039	-23.4095	23.3769	0.396236	0.573146	0.0258772	
1.18812	-367.869	557.182	-23.2022	23.4747	0.341082	0.480889	0.0254236	
1.19311	-367.602	556.993	-23.5006	23.5725	0.403005	0.584584	0.0256322	
1.1981	-367.527	556.848	-23.7202	23.6703	0.32718	0.457577	0.0249982	
1.20309	-367.794	557.026	-23.4286	23.7681	0.408121	0.594228	0.0253127	
1.20808	-367.867	557.176	-23.2158	23.8659	0.31411	0.436512	0.0251276	
1.21308	-367.611	557.002	-23.5093	23.9637	0.412855	0.602255	0.0251146	
1.21807	-367.546	556.856	-23.7137	24.0616	0.30259	0.416668	0.0249913	
1.22306	-367.804	557.034	-23.415	24.1594	0.415948	0.60796	0.0247719	
1.22805	-367.87	557.175	-23.2102	24.2572	0.291354	0.399197	0.0246318	
1.23304	-367.612	556.985	-23.5091	24.355	0.418031	0.611987	0.0248961	
1.23804	-367.538	556.842	-23.72	24.4528	0.283221	0.384478	0.0242907	
1.24303	-367.788	557.037	-23.4215	24.5506	0.418944	0.613726	0.0247199	
1.24802	-367.864	557.174	-23.2106	24.6484	0.275752	0.372831	0.0239436	
1.25301	-367.608	556.986	-23.5027	24.7462	0.418155	0.613361	0.0245178	
1.258	-367.534	556.847	-23.7031	24.844	0.271152	0.364963	0.0236731	
1.263	-367.791	557.023	-23.4127	24.9419	0.416713	0.610604	0.0241958	
1.26799	-367.868	557.17	-23.2134	25.0397	0.267911	0.360367	0.0241532	
1.27298	-367.612	556.997	-23.5032	25.1375	0.413393	0.605933	0.0238659	
1.27797	-367.532	556.847	-23.7148	25.2353	0.266136	0.360396	0.0223115	
1.28296	-367.79	557.026	-23.4309	25.3331	0.409346	0.600571	0.0251436	
1.28796	-367.866	557.184	-23.2155	25.4309	0.267927	0.361974	0.0238311	
1.29295	-367.613	557.007	-23.5043	25.5287	0.403484	0.591579	0.024008	
1.29794	-367.542	556.852	-23.7106	25.6265	0.270754	0.367871	0.0231168	
1.30293	-367.799	557.031	-23.4191	25.7243	0.396874	0.581064	0.0235122	
1.30792	-367.869	557.177	-23.2151	25.8222	0.275236	0.376118	0.0233687	
1.31292	-367.612	556.996	-23.5082	25.92	0.389175	0.56891	0.0234877	
1.31791	-367.546	556.852	-23.7214	26.0178	0.280589	0.387221	0.0230453	
1.3229	-367.795	557.034	-23.4299	26.1156	0.380317	0.554975	0.0233827	
1.32789	-367.866	557.178	-23.2167	26.2134	0.287411	0.399232	0.0227156	
1.33289	-367.622	556.997	-23.5034	26.3112	0.37078	0.539709	0.0232601	
1.33788	-367.545	556.846	-23.7105	26.409	0.294985	0.412629	0.0226698	
1.34287	-367.792	557.024	-23.4219	26.5068	0.360508	0.523235	0.0229281	
1.34786	-367.866	557.174	-23.2074	26.6046	0.302521	0.426584	0.0224011	
1.35285	-367.608	557.003	-23.4979	26.7025	0.34943	0.505412	0.0227292	
1.35785	-367.535	556.854	-23.7218	26.8003	0.310789	0.440849	0.0224724	
1.36284	-367.791	557.023	-23.4336	26.8981	0.33764	0.486266	0.0228261	
1.36783	-367.858	557.17	-23.2093	26.9959	0.318772	0.455061	0.0223423	
1.37282	-367.611	556.993	-23.4913	27.0937	0.326014	0.46715	0.0221814	
1.37781	-367.542	556.847	-23.7039	27.1915	0.326156	0.468313	0.0222252	
1.38281	-367.79	557.027	-23.4209	27.2893	0.313932	0.447775	0.0221678	
1.3878	-367.868	557.169	-23.2135	27.3871	0.333508	0.480778	0.02218	
1.39279	-367.61	556.998	-23.5031	27.4849	0.302053	0.427829	0.022125	
1.39778	-367.535	556.858	-23.7236	27.5828	0.340186	0.49254	0.0218365	
1.40277	-367.794	557.03	-23.441	27.6806	0.28997	0.408357	0.0218185	
1.40777	-367.869	557.175	-23.2203	27.7784	0.346075	0.502621	0.022152	
1.41276	-367.613	557	-23.499	27.8762	0.278724	0.38968	0.0214083	
